TITLE	
DATA TYPE	ULTRAVIOLET SPECTRUM
ORIGIN	JASCO
OWNER	
DATE	15/04/23
TIME	12:57:07
SPECTROMETER/DATA SYSTEM	
LOCALE	1045
RESOLUTION	
DELTAX	-1
XUNITS	NANOMETERS
YUNITS	REFLECTANCE
FIRSTX	 2000,0000
LASTX	  200,0000
NPOINTS	    1801
FIRSTY	    70,89654
MAXY	    81,29649
MINY	    16,75885
XYDATA
2000,0000	70,8965
1999,0000	69,8409
1998,0000	69,7916
1997,0000	69,4115
1996,0000	69,3016
1995,0000	68,5756
1994,0000	68,7697
1993,0000	69,2937
1992,0000	69,4513
1991,0000	70,1499
1990,0000	69,849
1989,0000	69,6196
1988,0000	70,1153
1987,0000	69,5946
1986,0000	69,8238
1985,0000	69,9685
1984,0000	69,7596
1983,0000	69,6334
1982,0000	69,911
1981,0000	70,1397
1980,0000	70,1636
1979,0000	70,2066
1978,0000	70,0471
1977,0000	68,7825
1976,0000	68,6226
1975,0000	68,4602
1974,0000	68,6895
1973,0000	70,0258
1972,0000	69,5507
1971,0000	69,7206
1970,0000	69,5475
1969,0000	69,4939
1968,0000	69,6111
1967,0000	69,6975
1966,0000	69,1955
1965,0000	68,7586
1964,0000	68,7909
1963,0000	68,2641
1962,0000	68,1614
1961,0000	68,0092
1960,0000	68,2475
1959,0000	69,1576
1958,0000	69,4849
1957,0000	69,8812
1956,0000	69,5519
1955,0000	68,4113
1954,0000	67,5161
1953,0000	67,1468
1952,0000	67,6199
1951,0000	68,3088
1950,0000	69,132
1949,0000	69,3062
1948,0000	69,2647
1947,0000	69,4286
1946,0000	69,1424
1945,0000	69,2179
1944,0000	68,9331
1943,0000	68,7773
1942,0000	68,5885
1941,0000	68,7419
1940,0000	68,8886
1939,0000	69,3897
1938,0000	69,6902
1937,0000	69,1216
1936,0000	69,1227
1935,0000	68,7461
1934,0000	69,2334
1933,0000	70,1816
1932,0000	69,3995
1931,0000	69,6067
1930,0000	68,7832
1929,0000	67,9696
1928,0000	67,9094
1927,0000	68,0391
1926,0000	67,9546
1925,0000	68,1638
1924,0000	69,5568
1923,0000	68,8109
1922,0000	69,5735
1921,0000	69,3907
1920,0000	68,2094
1919,0000	68,2718
1918,0000	68,5089
1917,0000	68,8488
1916,0000	69,0476
1915,0000	68,8699
1914,0000	68,5228
1913,0000	68,5429
1912,0000	68,6214
1911,0000	68,9622
1910,0000	68,6325
1909,0000	68,8124
1908,0000	69,7939
1907,0000	69,8444
1906,0000	70,6832
1905,0000	70,4038
1904,0000	69,9827
1903,0000	69,8817
1902,0000	68,8795
1901,0000	68,8249
1900,0000	70,44
1899,0000	70,11
1898,0000	70,4044
1897,0000	70,7433
1896,0000	70,8686
1895,0000	71,6004
1894,0000	72,4193
1893,0000	71,6262
1892,0000	71,1783
1891,0000	71,4038
1890,0000	70,7822
1889,0000	71,4059
1888,0000	72,3378
1887,0000	71,95
1886,0000	71,7761
1885,0000	71,3212
1884,0000	71,1215
1883,0000	71,6561
1882,0000	71,8656
1881,0000	72,1234
1880,0000	71,9866
1879,0000	71,2267
1878,0000	71,2385
1877,0000	71,1741
1876,0000	71,1779
1875,0000	71,3578
1874,0000	71,7565
1873,0000	71,822
1872,0000	71,7675
1871,0000	71,5521
1870,0000	70,8975
1869,0000	71,2987
1868,0000	70,9539
1867,0000	71,4427
1866,0000	71,8597
1865,0000	71,7729
1864,0000	72,4798
1863,0000	72,5274
1862,0000	72,5495
1861,0000	72,2553
1860,0000	72,38
1859,0000	72,2912
1858,0000	72,4762
1857,0000	72,6843
1856,0000	72,4135
1855,0000	72,7407
1854,0000	72,6175
1853,0000	72,6338
1852,0000	72,5315
1851,0000	72,3237
1850,0000	72,1516
1849,0000	71,9903
1848,0000	71,9527
1847,0000	72,0031
1846,0000	72,0494
1845,0000	72,294
1844,0000	72,4057
1843,0000	72,592
1842,0000	72,8274
1841,0000	72,738
1840,0000	72,5848
1839,0000	72,2352
1838,0000	72,1133
1837,0000	72,2194
1836,0000	72,3567
1835,0000	72,4577
1834,0000	72,2923
1833,0000	71,986
1832,0000	72,0925
1831,0000	72,3764
1830,0000	72,8116
1829,0000	73,0562
1828,0000	73,1621
1827,0000	73,0164
1826,0000	72,8056
1825,0000	72,8408
1824,0000	72,6973
1823,0000	72,5316
1822,0000	72,5921
1821,0000	72,8853
1820,0000	73,1486
1819,0000	73,4119
1818,0000	73,2446
1817,0000	73,1641
1816,0000	73,1621
1815,0000	73,4735
1814,0000	73,6919
1813,0000	73,5198
1812,0000	73,5336
1811,0000	73,3833
1810,0000	73,2659
1809,0000	73,3177
1808,0000	73,3069
1807,0000	73,4413
1806,0000	73,48
1805,0000	73,5358
1804,0000	73,3907
1803,0000	73,4384
1802,0000	73,6137
1801,0000	73,7851
1800,0000	73,9828
1799,0000	74,0385
1798,0000	74,0557
1797,0000	73,894
1796,0000	73,8474
1795,0000	73,823
1794,0000	73,8626
1793,0000	73,8403
1792,0000	73,8186
1791,0000	73,5871
1790,0000	73,4341
1789,0000	73,7679
1788,0000	73,9849
1787,0000	73,9259
1786,0000	74,1527
1785,0000	73,9322
1784,0000	73,9314
1783,0000	73,996
1782,0000	73,9352
1781,0000	74,1265
1780,0000	74,0784
1779,0000	74,1294
1778,0000	74,2387
1777,0000	74,0231
1776,0000	74,0886
1775,0000	74,1654
1774,0000	74,0997
1773,0000	74,3387
1772,0000	74,1298
1771,0000	74,0795
1770,0000	74,0478
1769,0000	73,9554
1768,0000	74,0492
1767,0000	74,0131
1766,0000	74,184
1765,0000	74,2302
1764,0000	74,3264
1763,0000	74,3363
1762,0000	74,3661
1761,0000	74,3369
1760,0000	74,3725
1759,0000	74,4906
1758,0000	74,4121
1757,0000	74,3689
1756,0000	74,4721
1755,0000	74,5287
1754,0000	74,5569
1753,0000	74,6615
1752,0000	74,4851
1751,0000	74,3337
1750,0000	74,409
1749,0000	74,4901
1748,0000	74,6689
1747,0000	74,8224
1746,0000	74,8351
1745,0000	74,7109
1744,0000	74,6451
1743,0000	74,672
1742,0000	74,7371
1741,0000	74,8391
1740,0000	74,8334
1739,0000	74,8248
1738,0000	74,8124
1737,0000	74,9648
1736,0000	75,0185
1735,0000	74,9665
1734,0000	74,9521
1733,0000	74,9036
1732,0000	74,9303
1731,0000	74,9989
1730,0000	74,9906
1729,0000	74,8884
1728,0000	74,9136
1727,0000	74,8586
1726,0000	74,8141
1725,0000	74,9609
1724,0000	74,9228
1723,0000	75,1088
1722,0000	75,1933
1721,0000	75,0139
1720,0000	75,1154
1719,0000	74,8648
1718,0000	74,7828
1717,0000	74,9651
1716,0000	74,8037
1715,0000	75,144
1714,0000	75,2646
1713,0000	75,293
1712,0000	75,3529
1711,0000	75,1355
1710,0000	74,9455
1709,0000	74,7638
1708,0000	74,8554
1707,0000	75,1065
1706,0000	75,3009
1705,0000	75,4024
1704,0000	75,4458
1703,0000	75,1833
1702,0000	74,9738
1701,0000	74,8154
1700,0000	74,7176
1699,0000	74,7138
1698,0000	74,9539
1697,0000	75,1329
1696,0000	75,0887
1695,0000	75,0963
1694,0000	75,0351
1693,0000	75,0884
1692,0000	75,2167
1691,0000	75,397
1690,0000	75,3671
1689,0000	75,3347
1688,0000	75,2816
1687,0000	75,1526
1686,0000	75,3417
1685,0000	75,2726
1684,0000	75,2108
1683,0000	75,2938
1682,0000	75,0753
1681,0000	75,165
1680,0000	75,2188
1679,0000	75,199
1678,0000	75,2928
1677,0000	75,1952
1676,0000	75,2229
1675,0000	75,2359
1674,0000	75,3218
1673,0000	75,3498
1672,0000	75,4158
1671,0000	75,4312
1670,0000	75,2772
1669,0000	75,3346
1668,0000	75,2729
1667,0000	75,2619
1666,0000	75,3192
1665,0000	75,4238
1664,0000	75,4764
1663,0000	75,4831
1662,0000	75,5526
1661,0000	75,4778
1660,0000	75,554
1659,0000	75,6575
1658,0000	75,6166
1657,0000	75,5197
1656,0000	75,3937
1655,0000	75,3609
1654,0000	75,2709
1653,0000	75,4142
1652,0000	75,5348
1651,0000	75,6336
1650,0000	75,668
1649,0000	75,5629
1648,0000	75,4402
1647,0000	75,2889
1646,0000	75,3884
1645,0000	75,4422
1644,0000	75,5664
1643,0000	75,5632
1642,0000	75,5165
1641,0000	75,4348
1640,0000	75,3079
1639,0000	75,4036
1638,0000	75,4418
1637,0000	75,5625
1636,0000	75,6005
1635,0000	75,5825
1634,0000	75,5315
1633,0000	75,4536
1632,0000	75,5498
1631,0000	75,3728
1630,0000	75,4438
1629,0000	75,731
1628,0000	75,6865
1627,0000	75,8537
1626,0000	75,8713
1625,0000	75,6377
1624,0000	75,6625
1623,0000	75,682
1622,0000	75,6749
1621,0000	75,7117
1620,0000	75,6341
1619,0000	75,5827
1618,0000	75,562
1617,0000	75,484
1616,0000	75,6336
1615,0000	75,6423
1614,0000	75,6641
1613,0000	75,8538
1612,0000	75,7975
1611,0000	75,7184
1610,0000	75,7649
1609,0000	75,5939
1608,0000	75,5719
1607,0000	75,7716
1606,0000	75,8198
1605,0000	75,8299
1604,0000	75,8534
1603,0000	75,8489
1602,0000	75,6322
1601,0000	75,688
1600,0000	75,6842
1599,0000	75,7023
1598,0000	75,8433
1597,0000	75,9419
1596,0000	75,9828
1595,0000	75,8883
1594,0000	75,907
1593,0000	75,8284
1592,0000	75,7484
1591,0000	75,8174
1590,0000	75,9168
1589,0000	76,0384
1588,0000	76,1185
1587,0000	76,0642
1586,0000	75,9677
1585,0000	75,8935
1584,0000	76,0612
1583,0000	76,0661
1582,0000	76,0197
1581,0000	75,9721
1580,0000	75,7662
1579,0000	75,8191
1578,0000	75,9238
1577,0000	75,9278
1576,0000	76,0089
1575,0000	75,9488
1574,0000	76,0227
1573,0000	76,1045
1572,0000	76,1491
1571,0000	76,3111
1570,0000	76,1984
1569,0000	76,1914
1568,0000	76,0709
1567,0000	76,0009
1566,0000	76,0459
1565,0000	76,0204
1564,0000	76,1323
1563,0000	76,1434
1562,0000	76,2295
1561,0000	76,2286
1560,0000	76,1837
1559,0000	76,1232
1558,0000	76,0283
1557,0000	76,0508
1556,0000	75,9592
1555,0000	75,9837
1554,0000	75,9399
1553,0000	75,9727
1552,0000	76,1273
1551,0000	76,0797
1550,0000	76,2164
1549,0000	76,2888
1548,0000	76,3438
1547,0000	76,4049
1546,0000	76,3179
1545,0000	76,3163
1544,0000	76,2787
1543,0000	76,3756
1542,0000	76,3507
1541,0000	76,3155
1540,0000	76,2793
1539,0000	76,2577
1538,0000	76,3323
1537,0000	76,3702
1536,0000	76,4178
1535,0000	76,3231
1534,0000	76,3717
1533,0000	76,3637
1532,0000	76,2832
1531,0000	76,288
1530,0000	76,241
1529,0000	76,312
1528,0000	76,3377
1527,0000	76,5254
1526,0000	76,4332
1525,0000	76,3064
1524,0000	76,3511
1523,0000	76,2153
1522,0000	76,3553
1521,0000	76,3737
1520,0000	76,3547
1519,0000	76,4109
1518,0000	76,3872
1517,0000	76,4204
1516,0000	76,4038
1515,0000	76,3362
1514,0000	76,3799
1513,0000	76,3514
1512,0000	76,4725
1511,0000	76,5566
1510,0000	76,5587
1509,0000	76,6448
1508,0000	76,4996
1507,0000	76,4388
1506,0000	76,3886
1505,0000	76,3397
1504,0000	76,3551
1503,0000	76,3717
1502,0000	76,3392
1501,0000	76,3887
1500,0000	76,3451
1499,0000	76,4155
1498,0000	76,4908
1497,0000	76,4459
1496,0000	76,5138
1495,0000	76,5405
1494,0000	76,5854
1493,0000	76,5629
1492,0000	76,646
1491,0000	76,5931
1490,0000	76,4918
1489,0000	76,4824
1488,0000	76,4022
1487,0000	76,4348
1486,0000	76,6359
1485,0000	76,7198
1484,0000	76,8248
1483,0000	76,8038
1482,0000	76,6595
1481,0000	76,6212
1480,0000	76,4695
1479,0000	76,5021
1478,0000	76,563
1477,0000	76,5143
1476,0000	76,5981
1475,0000	76,5854
1474,0000	76,5032
1473,0000	76,5453
1472,0000	76,6216
1471,0000	76,5911
1470,0000	76,6219
1469,0000	76,6426
1468,0000	76,5976
1467,0000	76,6453
1466,0000	76,7317
1465,0000	76,7212
1464,0000	76,735
1463,0000	76,6931
1462,0000	76,6034
1461,0000	76,6205
1460,0000	76,6145
1459,0000	76,6178
1458,0000	76,7383
1457,0000	76,8707
1456,0000	76,9069
1455,0000	77,045
1454,0000	77,0058
1453,0000	76,9378
1452,0000	76,9885
1451,0000	76,9266
1450,0000	76,9419
1449,0000	76,9009
1448,0000	76,7962
1447,0000	76,6819
1446,0000	76,6926
1445,0000	76,6972
1444,0000	76,7635
1443,0000	76,9665
1442,0000	76,9634
1441,0000	76,9543
1440,0000	76,9472
1439,0000	76,7688
1438,0000	76,4379
1437,0000	76,3726
1436,0000	76,1457
1435,0000	76,079
1434,0000	76,2095
1433,0000	76,0229
1432,0000	75,9629
1431,0000	75,9015
1430,0000	75,9224
1429,0000	76,0311
1428,0000	76,0399
1427,0000	76,1462
1426,0000	76,1744
1425,0000	76,2444
1424,0000	76,5008
1423,0000	76,4731
1422,0000	76,503
1421,0000	76,7232
1420,0000	76,8802
1419,0000	77,0028
1418,0000	77,0922
1417,0000	76,9858
1416,0000	76,7403
1415,0000	76,5191
1414,0000	76,4573
1413,0000	76,4337
1412,0000	76,3528
1411,0000	76,5957
1410,0000	76,731
1409,0000	76,7094
1408,0000	76,9739
1407,0000	76,9022
1406,0000	76,7593
1405,0000	76,752
1404,0000	76,731
1403,0000	76,7487
1402,0000	76,8084
1401,0000	76,6618
1400,0000	76,6666
1399,0000	76,556
1398,0000	76,5713
1397,0000	76,8102
1396,0000	76,7713
1395,0000	76,8639
1394,0000	76,9936
1393,0000	77,0074
1392,0000	77,0444
1391,0000	77,1489
1390,0000	76,9464
1389,0000	76,8343
1388,0000	76,6985
1387,0000	76,8336
1386,0000	76,976
1385,0000	77,1591
1384,0000	77,1603
1383,0000	77,0057
1382,0000	76,8293
1381,0000	76,6653
1380,0000	76,8387
1379,0000	76,8655
1378,0000	76,9528
1377,0000	77,0915
1376,0000	77,0771
1375,0000	77,0116
1374,0000	77,0339
1373,0000	77,1166
1372,0000	77,0975
1371,0000	77,177
1370,0000	77,1755
1369,0000	76,9438
1368,0000	76,8043
1367,0000	76,7928
1366,0000	76,7893
1365,0000	76,8413
1364,0000	76,8903
1363,0000	76,8411
1362,0000	76,846
1361,0000	76,8152
1360,0000	76,8456
1359,0000	76,8928
1358,0000	76,953
1357,0000	77,081
1356,0000	77,2496
1355,0000	77,2729
1354,0000	77,1985
1353,0000	77,2619
1352,0000	77,1333
1351,0000	77,1547
1350,0000	77,2665
1349,0000	77,2116
1348,0000	77,2709
1347,0000	77,3311
1346,0000	77,3648
1345,0000	77,336
1344,0000	77,3881
1343,0000	77,4075
1342,0000	77,3388
1341,0000	77,3322
1340,0000	77,3935
1339,0000	77,2201
1338,0000	77,2678
1337,0000	77,435
1336,0000	77,3557
1335,0000	77,4664
1334,0000	77,5351
1333,0000	77,4303
1332,0000	77,4728
1331,0000	77,4481
1330,0000	77,4142
1329,0000	77,5098
1328,0000	77,547
1327,0000	77,6157
1326,0000	77,6213
1325,0000	77,5441
1324,0000	77,4999
1323,0000	77,4656
1322,0000	77,4598
1321,0000	77,5032
1320,0000	77,4896
1319,0000	77,5688
1318,0000	77,5917
1317,0000	77,5746
1316,0000	77,5885
1315,0000	77,5743
1314,0000	77,5781
1313,0000	77,5838
1312,0000	77,6208
1311,0000	77,6112
1310,0000	77,6785
1309,0000	77,7316
1308,0000	77,7371
1307,0000	77,7739
1306,0000	77,7146
1305,0000	77,7359
1304,0000	77,7275
1303,0000	77,73
1302,0000	77,7554
1301,0000	77,7568
1300,0000	77,837
1299,0000	77,8271
1298,0000	77,8399
1297,0000	77,8035
1296,0000	77,755
1295,0000	77,7089
1294,0000	77,709
1293,0000	77,7162
1292,0000	77,7558
1291,0000	77,8153
1290,0000	77,8532
1289,0000	77,8978
1288,0000	77,8852
1287,0000	77,8734
1286,0000	77,8664
1285,0000	77,8078
1284,0000	77,8244
1283,0000	77,822
1282,0000	77,814
1281,0000	77,865
1280,0000	77,8564
1279,0000	77,87
1278,0000	77,877
1277,0000	77,9046
1276,0000	77,9421
1275,0000	77,9595
1274,0000	77,9917
1273,0000	78,0105
1272,0000	77,9925
1271,0000	78,0293
1270,0000	77,9842
1269,0000	77,9448
1268,0000	77,9566
1267,0000	77,9609
1266,0000	78,0398
1265,0000	78,0476
1264,0000	78,0064
1263,0000	78,0679
1262,0000	78,0868
1261,0000	78,1951
1260,0000	78,3058
1259,0000	78,2684
1258,0000	78,2451
1257,0000	78,2248
1256,0000	78,1647
1255,0000	78,2087
1254,0000	78,2069
1253,0000	78,1272
1252,0000	78,143
1251,0000	78,0744
1250,0000	78,0286
1249,0000	78,0912
1248,0000	78,1242
1247,0000	78,1247
1246,0000	78,1607
1245,0000	78,1259
1244,0000	78,1037
1243,0000	78,0877
1242,0000	78,0716
1241,0000	78,0384
1240,0000	77,9284
1239,0000	77,9419
1238,0000	77,8974
1237,0000	77,824
1236,0000	77,8788
1235,0000	77,8016
1234,0000	77,8173
1233,0000	77,8793
1232,0000	77,8326
1231,0000	77,8821
1230,0000	77,9091
1229,0000	77,9395
1228,0000	78,0402
1227,0000	78,0977
1226,0000	78,1101
1225,0000	78,1237
1224,0000	78,1399
1223,0000	78,0904
1222,0000	78,091
1221,0000	78,0557
1220,0000	78,0399
1219,0000	78,1031
1218,0000	78,1155
1217,0000	78,172
1216,0000	78,1697
1215,0000	78,206
1214,0000	78,1812
1213,0000	78,1562
1212,0000	78,1397
1211,0000	78,128
1210,0000	78,1724
1209,0000	78,2333
1208,0000	78,2649
1207,0000	78,2154
1206,0000	78,2452
1205,0000	78,2101
1204,0000	78,2128
1203,0000	78,2486
1202,0000	78,2039
1201,0000	78,2331
1200,0000	78,258
1199,0000	78,2456
1198,0000	78,2667
1197,0000	78,2852
1196,0000	78,3489
1195,0000	78,3564
1194,0000	78,298
1193,0000	78,2686
1192,0000	78,2107
1191,0000	78,2371
1190,0000	78,2814
1189,0000	78,2967
1188,0000	78,331
1187,0000	78,3248
1186,0000	78,2976
1185,0000	78,3017
1184,0000	78,3087
1183,0000	78,3126
1182,0000	78,2845
1181,0000	78,2865
1180,0000	78,2635
1179,0000	78,2684
1178,0000	78,2964
1177,0000	78,2965
1176,0000	78,3422
1175,0000	78,3377
1174,0000	78,3755
1173,0000	78,3741
1172,0000	78,339
1171,0000	78,3491
1170,0000	78,2906
1169,0000	78,3483
1168,0000	78,3741
1167,0000	78,3692
1166,0000	78,3911
1165,0000	78,3681
1164,0000	78,3581
1163,0000	78,3521
1162,0000	78,3811
1161,0000	78,3703
1160,0000	78,3813
1159,0000	78,4243
1158,0000	78,4263
1157,0000	78,4672
1156,0000	78,4639
1155,0000	78,4666
1154,0000	78,4528
1153,0000	78,415
1152,0000	78,4586
1151,0000	78,4373
1150,0000	78,5094
1149,0000	78,5192
1148,0000	78,4709
1147,0000	78,4474
1146,0000	78,43
1145,0000	78,4316
1144,0000	78,432
1143,0000	78,4568
1142,0000	78,4321
1141,0000	78,4493
1140,0000	78,4869
1139,0000	78,502
1138,0000	78,4851
1137,0000	78,4676
1136,0000	78,4555
1135,0000	78,4347
1134,0000	78,454
1133,0000	78,4772
1132,0000	78,5221
1131,0000	78,5019
1130,0000	78,5074
1129,0000	78,5104
1128,0000	78,4628
1127,0000	78,4982
1126,0000	78,5125
1125,0000	78,5563
1124,0000	78,5449
1123,0000	78,5689
1122,0000	78,542
1121,0000	78,5059
1120,0000	78,5286
1119,0000	78,5011
1118,0000	78,5382
1117,0000	78,5134
1116,0000	78,5545
1115,0000	78,5695
1114,0000	78,5405
1113,0000	78,5461
1112,0000	78,537
1111,0000	78,5826
1110,0000	78,6329
1109,0000	78,6352
1108,0000	78,6598
1107,0000	78,6405
1106,0000	78,5592
1105,0000	78,5919
1104,0000	78,538
1103,0000	78,5405
1102,0000	78,6143
1101,0000	78,6152
1100,0000	78,6551
1099,0000	78,653
1098,0000	78,614
1097,0000	78,6199
1096,0000	78,6224
1095,0000	78,6497
1094,0000	78,6839
1093,0000	78,7142
1092,0000	78,7199
1091,0000	78,7114
1090,0000	78,7429
1089,0000	78,7073
1088,0000	78,6863
1087,0000	78,6855
1086,0000	78,6448
1085,0000	78,6395
1084,0000	78,6363
1083,0000	78,6348
1082,0000	78,6573
1081,0000	78,6537
1080,0000	78,6635
1079,0000	78,6807
1078,0000	78,6673
1077,0000	78,6854
1076,0000	78,6946
1075,0000	78,6691
1074,0000	78,6566
1073,0000	78,6712
1072,0000	78,6671
1071,0000	78,652
1070,0000	78,7026
1069,0000	78,7076
1068,0000	78,7281
1067,0000	78,7676
1066,0000	78,7584
1065,0000	78,7411
1064,0000	78,7546
1063,0000	78,738
1062,0000	78,779
1061,0000	78,7855
1060,0000	78,7775
1059,0000	78,7902
1058,0000	78,7915
1057,0000	78,8224
1056,0000	78,8091
1055,0000	78,8264
1054,0000	78,8104
1053,0000	78,8222
1052,0000	78,8621
1051,0000	78,8587
1050,0000	78,8213
1049,0000	78,7961
1048,0000	78,7788
1047,0000	78,7916
1046,0000	78,8477
1045,0000	78,8701
1044,0000	78,87
1043,0000	78,8675
1042,0000	78,8542
1041,0000	78,838
1040,0000	78,8791
1039,0000	78,8801
1038,0000	78,8655
1037,0000	78,8639
1036,0000	78,8384
1035,0000	78,8539
1034,0000	78,8635
1033,0000	78,8546
1032,0000	78,8313
1031,0000	78,8081
1030,0000	78,8425
1029,0000	78,8663
1028,0000	78,9522
1027,0000	78,9653
1026,0000	78,9452
1025,0000	78,9882
1024,0000	78,9139
1023,0000	78,9118
1022,0000	78,885
1021,0000	78,8404
1020,0000	78,8678
1019,0000	78,8808
1018,0000	78,9152
1017,0000	78,9616
1016,0000	78,9645
1015,0000	78,98
1014,0000	78,9825
1013,0000	78,9257
1012,0000	78,9034
1011,0000	78,9195
1010,0000	78,9185
1009,0000	78,9384
1008,0000	78,9237
1007,0000	78,8397
1006,0000	78,8211
1005,0000	78,8091
1004,0000	78,8529
1003,0000	78,9056
1002,0000	78,961
1001,0000	78,9997
1000,0000	79,0168
999,0000	79,0815
998,0000	79,0394
997,0000	79,0501
996,0000	79,0134
995,0000	78,9488
994,0000	78,9051
993,0000	78,8489
992,0000	78,8699
991,0000	78,8856
990,0000	78,9193
989,0000	78,9245
988,0000	78,8852
987,0000	78,8949
986,0000	78,8883
985,0000	78,9255
984,0000	78,9781
983,0000	78,9669
982,0000	78,9639
981,0000	78,9734
980,0000	78,9007
979,0000	78,877
978,0000	78,8936
977,0000	78,884
976,0000	78,9295
975,0000	78,9745
974,0000	78,9697
973,0000	78,9351
972,0000	78,9184
971,0000	78,9127
970,0000	78,9184
969,0000	78,9495
968,0000	79,0311
967,0000	79,0153
966,0000	79,0462
965,0000	79,0193
964,0000	78,9612
963,0000	78,9755
962,0000	78,9537
961,0000	79,0028
960,0000	79,0116
959,0000	79,0036
958,0000	79,0489
957,0000	79,0778
956,0000	79,0673
955,0000	79,075
954,0000	79,0861
953,0000	79,0353
952,0000	79,0799
951,0000	79,0594
950,0000	79,008
949,0000	79,0272
948,0000	79,0031
947,0000	78,9988
946,0000	78,994
945,0000	79,0411
944,0000	79,0321
943,0000	79,0357
942,0000	79,0335
941,0000	78,898
940,0000	78,8328
939,0000	78,8172
938,0000	78,7485
937,0000	78,7699
936,0000	78,7898
935,0000	78,7099
934,0000	78,7797
933,0000	78,738
932,0000	78,7225
931,0000	78,7556
930,0000	78,7206
929,0000	78,7654
928,0000	78,8906
927,0000	78,8674
926,0000	78,8616
925,0000	78,8569
924,0000	78,7661
923,0000	78,8137
922,0000	78,8019
921,0000	78,8227
920,0000	78,7701
919,0000	78,7983
918,0000	78,8152
917,0000	78,8032
916,0000	78,9044
915,0000	78,834
914,0000	78,7648
913,0000	78,7534
912,0000	78,6926
911,0000	78,7757
910,0000	78,8932
909,0000	78,8802
908,0000	78,8964
907,0000	78,8031
906,0000	78,8137
905,0000	78,8364
904,0000	78,8594
903,0000	78,9477
902,0000	78,8788
901,0000	78,8707
900,0000	78,8417
899,0000	78,7233
898,0000	78,6873
897,0000	78,7119
896,0000	78,6799
895,0000	78,8242
